output wavelengths (m)
  2.000e-03
  1.910e-03
  1.824e-03
  1.742e-03
  1.664e-03
  1.589e-03
  1.517e-03
  1.449e-03
  1.384e-03
  1.321e-03
  1.262e-03
  1.205e-03
  1.151e-03
  1.099e-03
  1.050e-03
  1.002e-03
  9.573e-04
  9.142e-04
  8.730e-04
  8.337e-04
  7.962e-04
  7.604e-04
  7.262e-04
  6.935e-04
  6.623e-04
  6.325e-04
  6.040e-04
  5.768e-04
  5.508e-04
  5.261e-04
  5.024e-04
  4.798e-04
  4.582e-04
  4.376e-04
  4.179e-04
  3.991e-04
  3.811e-04
  3.639e-04
  3.476e-04
  3.319e-04
  3.170e-04
  3.027e-04
  2.891e-04
  2.761e-04
  2.637e-04
  2.518e-04
  2.405e-04
  2.296e-04
  2.193e-04
  2.094e-04
  2.000e-04
  1.910e-04
  1.824e-04
  1.742e-04
  1.664e-04
  1.589e-04
  1.517e-04
  1.449e-04
  1.384e-04
  1.321e-04
  1.262e-04
  1.205e-04
  1.151e-04
  1.099e-04
  1.050e-04
  1.002e-04
  9.573e-05
  9.142e-05
  8.730e-05
  8.337e-05
  7.962e-05
  7.604e-05
  7.262e-05
  6.935e-05
  6.623e-05
  6.325e-05
  6.040e-05
  5.768e-05
  5.508e-05
  5.261e-05
  5.024e-05
  4.909e-05
  4.798e-05
  4.688e-05
  4.582e-05
  4.477e-05
  4.376e-05
  4.276e-05
  4.179e-05
  4.083e-05
  3.991e-05
  3.900e-05
  3.811e-05
  3.724e-05
  3.639e-05
  3.557e-05
  3.476e-05
  3.396e-05
  3.319e-05
  3.244e-05
  3.170e-05
  3.098e-05
  3.027e-05
  2.958e-05
  2.891e-05
  2.825e-05
  2.761e-05
  2.698e-05
  2.637e-05
  2.576e-05
  2.518e-05
  2.461e-05
  2.405e-05
  2.350e-05
  2.296e-05
  2.244e-05
  2.193e-05
  2.143e-05
  2.094e-05
  2.047e-05
  2.000e-05
  1.977e-05
  1.954e-05
  1.932e-05
