Refractive indices for Dust from Fouquart et al. 1987,J. Clim. Appl. Meteorol. 
   Wavelength (m)  Real Part       Imaginary Part
     0.2000E-06     0.1530E+01     0.5455E-02
     0.2500E-06     0.1530E+01     0.5455E-02
     0.3000E-06     0.1530E+01     0.5455E-02
     0.3370E-06     0.1530E+01     0.3469E-02
     0.4000E-06     0.1530E+01     0.2364E-02
     0.4880E-06     0.1530E+01     0.1449E-02
     0.5150E-06     0.1530E+01     0.1293E-02
     0.5500E-06     0.1530E+01     0.1000E-02
     0.6330E-06     0.1530E+01     0.8182E-03
     0.6940E-06     0.1530E+01     0.7382E-03
     0.8600E-06     0.1530E+01     0.7273E-03
     0.1060E-05     0.1530E+01     0.7709E-03
     0.1300E-05     0.1530E+01     0.9345E-03
     0.1536E-05     0.1530E+01     0.1055E-02
     0.1800E-05     0.1530E+01     0.1207E-02
     0.2000E-05     0.1530E+01     0.1382E-02
     0.2250E-05     0.1525E+01     0.1964E-02
     0.2500E-05     0.1520E+01     0.2545E-02
     0.2700E-05     0.1520E+01     0.4364E-02
     0.3000E-05     0.1520E+01     0.7091E-02
     0.3200E-05     0.1510E+01     0.4364E-02
     0.3392E-05     0.1510E+01     0.3496E-02
     0.3500E-05     0.1510E+01     0.3273E-02
     0.3750E-05     0.1500E+01     0.2182E-02
     0.4000E-05     0.1500E+01     0.1218E-02
     0.4500E-05     0.1500E+01     0.1582E-02
     0.4996E-05     0.1480E+01     0.3273E-02
     0.5503E-05     0.1460E+01     0.3669E-01
     0.5993E-05     0.1440E+01     0.6661E-01
     0.6196E-05     0.1430E+01     0.6461E-01
     0.6501E-05     0.1420E+01     0.5377E-01
     0.7194E-05     0.1460E+01     0.7738E-01
     0.7904E-05     0.1220E+01     0.9994E-01
     0.8192E-05     0.1120E+01     0.1511E+00
     0.8496E-05     0.1060E+01     0.2457E+00
     0.8699E-05     0.1190E+01     0.3451E+00
     0.9004E-05     0.1850E+01     0.5058E+00
     0.9206E-05     0.2220E+01     0.5744E+00
     0.9494E-05     0.2940E+01     0.6564E+00
     0.9798E-05     0.2910E+01     0.6588E+00
     0.1000E-04     0.2570E+01     0.5231E+00
     0.1059E-04     0.1920E+01     0.2800E+00
     0.1100E-04     0.1830E+01     0.2272E+00
     0.1151E-04     0.1810E+01     0.1476E+00
     0.1250E-04     0.1740E+01     0.1868E+00
     0.1299E-04     0.2000E+01     0.1856E+00
     0.1399E-04     0.1630E+01     0.2074E+00
     0.1480E-04     0.1540E+01     0.2472E+00
     0.1501E-04     0.1510E+01     0.2450E+00
     0.1639E-04     0.1470E+01     0.3411E+00
     0.1721E-04     0.1490E+01     0.4602E+00
     0.1800E-04     0.1770E+01     0.6199E+00
     0.1851E-04     0.2050E+01     0.7077E+00
     0.2000E-04     0.2200E+01     0.6755E+00
     0.2130E-04     0.2390E+01     0.8674E+00
     0.2250E-04     0.2690E+01     0.8172E+00
     0.2500E-04     0.2990E+01     0.5781E+00
     0.2789E-04     0.2570E+01     0.5479E+00
     0.3001E-04     0.2420E+01     0.5832E+00
     0.3500E-04     0.2420E+01     0.5883E+00
     0.4000E-04     0.2340E+01     0.5866E+00
